SpectraSuite Data File
++++++++++++++++++++++++++++++++++++
Date: Fri May 31 11:28:37 EEST 2013
User: OO Maya
Dark Spectrum Present: No
Reference Spectrum Present: No
Number of Sampled Component Spectra: 1
Spectrometers: MAYP11278
Integration Time (usec): 10000000 (MAYP11278)
Spectra Averaged: 1 (MAYP11278)
Boxcar Smoothing: 0 (MAYP11278)
Correct for Electrical Dark: No (MAYP11278)
Strobe/Lamp Enabled: No (MAYP11278)
Correct for Detector Non-linearity: No (MAYP11278)
Correct for Stray Light: No (MAYP11278)
Number of Pixels in Processed Spectrum: 2068
>>>>>Begin Processed Spectral Data<<<<<
188,05	2303,00
188,53	2224,00
189,01	2183,00
189,49	2188,00
189,96	25453,00
190,44	30933,00
190,92	35988,00
191,40	37705,00
191,88	38232,00
192,36	37807,00
192,83	37454,00
193,31	36767,00
193,79	37761,00
194,27	37633,00
194,75	38225,00
195,23	37475,00
195,70	38890,00
196,18	37529,00
196,66	37768,00
197,14	40516,00
197,62	38153,00
198,09	37280,00
198,57	37644,00
199,05	37336,00
199,53	38406,00
200,01	39014,00
200,48	37660,00
200,96	37777,00
201,44	38709,00
201,92	38839,00
202,39	38441,00
202,87	37384,00
203,35	38377,00
203,83	37328,00
204,31	39014,00
204,78	39632,00
205,26	37968,00
205,74	38016,00
206,22	39977,00
206,69	38378,00
207,17	38976,00
207,65	41214,00
208,13	38890,00
208,60	39583,00
209,08	38753,00
209,56	39912,00
210,04	39606,00
210,51	39096,00
210,99	38972,00
211,47	39405,00
211,94	38968,00
212,42	38296,00
212,90	40653,00
213,38	39424,00
213,85	38728,00
214,33	40677,00
214,81	39516,00
215,29	40949,00
215,76	39720,00
216,24	40310,00
216,72	40221,00
217,19	40201,00
217,67	39044,00
218,15	39198,00
218,62	40711,00
219,10	38118,00
219,58	38873,00
220,05	39185,00
220,53	39555,00
221,01	40552,00
221,49	39258,00
221,96	40644,00
222,44	38897,00
222,92	40503,00
223,39	39218,00
223,87	40292,00
224,35	39408,00
224,82	39069,00
225,30	38468,00
225,78	39232,00
226,25	39045,00
226,73	39768,00
227,21	40623,00
227,68	39580,00
228,16	40318,00
228,63	40616,00
229,11	40404,00
229,59	39875,00
230,06	39874,00
230,54	39632,00
231,02	40793,00
231,49	40480,00
231,97	39868,00
232,45	40157,00
232,92	39488,00
233,40	40197,00
233,87	40714,00
234,35	43872,00
234,83	41212,00
235,30	39998,00
235,78	39992,00
236,25	39648,00
236,73	41753,00
237,21	42981,00
237,68	40152,00
238,16	40822,00
238,63	40931,00
239,11	41060,00
239,59	41046,00
240,06	39732,00
240,54	41627,00
241,01	42253,00
241,49	41302,00
241,96	41017,00
242,44	42097,00
242,92	42347,00
243,39	40205,00
243,87	40905,00
244,34	42173,00
244,82	42692,00
245,29	41228,00
245,77	42988,00
246,24	42683,00
246,72	41173,00
247,20	41621,00
247,67	41987,00
248,15	41866,00
248,62	42055,00
249,10	40189,00
249,57	41913,00
250,05	42180,00
250,52	41987,00
251,00	43160,00
251,47	42153,00
251,95	43908,00
252,42	43191,00
252,90	41548,00
253,37	43314,00
253,85	42060,00
254,32	41897,00
254,80	42184,00
255,27	42236,00
255,75	42638,00
256,22	41804,00
256,70	42265,00
257,17	42832,00
257,65	43233,00
258,12	45386,00
258,60	42610,00
259,07	41468,00
259,55	41578,00
260,02	41227,00
260,50	42341,00
260,97	40774,00
261,45	41169,00
261,92	43312,00
262,40	41919,00
262,87	42646,00
263,35	42032,00
263,82	40855,00
264,30	42802,00
264,77	43056,00
265,25	41715,00
265,72	42491,00
266,19	42609,00
266,67	43226,00
267,14	42860,00
267,62	42754,00
268,09	42655,00
268,57	42075,00
269,04	39414,00
269,51	39307,00
269,99	39420,00
270,46	40217,00
270,94	41196,00
271,41	40585,00
271,89	41516,00
272,36	40836,00
272,83	41821,00
273,31	41394,00
273,78	42329,00
274,26	44740,00
274,73	41108,00
275,20	41004,00
275,68	39741,00
276,15	40267,00
276,63	40607,00
277,10	40311,00
277,57	37360,00
278,05	36847,00
278,52	34745,00
279,00	38857,00
279,47	34783,00
279,94	36525,00
280,42	46436,00
280,89	51769,00
281,36	57755,00
281,84	51928,00
282,31	49826,00
282,78	46612,00
283,26	45284,00
283,73	45261,00
284,21	43241,00
284,68	42901,00
285,15	44454,00
285,63	43826,00
286,10	43927,00
286,57	43772,00
287,05	42156,00
287,52	43668,00
287,99	44732,00
288,47	42700,00
288,94	43496,00
289,41	41100,00
289,89	43939,00
290,36	42124,00
290,83	43039,00
291,30	42214,00
291,78	43036,00
292,25	44856,00
292,72	42264,00
293,20	44042,00
293,67	42451,00
294,14	43523,00
294,62	43599,00
295,09	42686,00
295,56	43247,00
296,03	43662,00
296,51	45398,00
296,98	45140,00
297,45	44362,00
297,93	43762,00
298,40	43766,00
298,87	42716,00
299,34	44862,00
299,82	43140,00
300,29	43672,00
300,76	42829,00
301,23	44294,00
301,71	44044,00
302,18	44180,00
302,65	42127,00
303,12	43780,00
303,60	44428,00
304,07	42769,00
304,54	43145,00
305,01	42668,00
305,49	43542,00
305,96	43434,00
306,43	43410,00
306,90	43730,00
307,38	42365,00
307,85	42537,00
308,32	43076,00
308,79	42532,00
309,27	43898,00
309,74	44001,00
310,21	43376,00
310,68	43206,00
311,15	43778,00
311,63	42970,00
312,10	44697,00
312,57	43421,00
313,04	45281,00
313,51	43133,00
313,99	43301,00
314,46	43784,00
314,93	43285,00
315,40	43050,00
315,87	44365,00
316,34	44190,00
316,82	43853,00
317,29	44245,00
317,76	44184,00
318,23	46542,00
318,70	43990,00
319,17	43575,00
319,65	42823,00
320,12	44084,00
320,59	46015,00
321,06	44866,00
321,53	43882,00
322,00	42722,00
322,48	42870,00
322,95	45520,00
323,42	43495,00
323,89	46028,00
324,36	42960,00
324,83	44226,00
325,30	44189,00
325,78	44445,00
326,25	44422,00
326,72	44371,00
327,19	45346,00
327,66	45534,00
328,13	45596,00
328,60	45104,00
329,07	45024,00
329,54	44992,00
330,02	44851,00
330,49	44373,00
330,96	45885,00
331,43	45378,00
331,90	46435,00
332,37	44352,00
332,84	47205,00
333,31	46321,00
333,78	45903,00
334,25	46658,00
334,72	45753,00
335,20	46361,00
335,67	49307,00
336,14	44505,00
336,61	45065,00
337,08	44787,00
337,55	45377,00
338,02	44637,00
338,49	44354,00
338,96	46235,00
339,43	45468,00
339,90	43476,00
340,37	43774,00
340,84	43423,00
341,31	44576,00
341,78	45050,00
342,25	43746,00
342,72	44344,00
343,19	44582,00
343,67	44272,00
344,14	43906,00
344,61	44292,00
345,08	43521,00
345,55	44260,00
346,02	44862,00
346,49	44001,00
346,96	43872,00
347,43	46118,00
347,90	44434,00
348,37	45772,00
348,84	44809,00
349,31	43484,00
349,78	44976,00
350,25	45716,00
350,72	44988,00
351,19	44401,00
351,66	45512,00
352,13	47056,00
352,60	45414,00
353,07	44763,00
353,54	44938,00
354,01	45693,00
354,48	45386,00
354,94	46055,00
355,41	45412,00
355,88	46842,00
356,35	44794,00
356,82	47093,00
357,29	45007,00
357,76	47913,00
358,23	46766,00
358,70	45060,00
359,17	45396,00
359,64	45883,00
360,11	45830,00
360,58	47122,00
361,05	47943,00
361,52	46128,00
361,99	46282,00
362,46	46392,00
362,93	46465,00
363,39	46218,00
363,86	48744,00
364,33	47064,00
364,80	45669,00
365,27	47113,00
365,74	46018,00
366,21	45805,00
366,68	47407,00
367,15	47190,00
367,62	60724,00
368,09	45886,00
368,55	46432,00
369,02	48095,00
369,49	46540,00
369,96	48319,00
370,43	47709,00
370,90	47043,00
371,37	47149,00
371,84	48080,00
372,31	46942,00
372,77	46322,00
373,24	47036,00
373,71	47688,00
374,18	46971,00
374,65	47162,00
375,12	48241,00
375,59	46484,00
376,05	49294,00
376,52	47663,00
376,99	47146,00
377,46	47270,00
377,93	48685,00
378,40	48546,00
378,86	48683,00
379,33	48569,00
379,80	48428,00
380,27	49026,00
380,74	50080,00
381,21	48951,00
381,67	50235,00
382,14	50185,00
382,61	48032,00
383,08	49536,00
383,55	48927,00
384,02	50730,00
384,48	49962,00
384,95	55674,00
385,42	51215,00
385,89	51236,00
386,36	52040,00
386,82	54982,00
387,29	53811,00
387,76	55094,00
388,23	58959,00
388,69	61240,00
389,16	64000,00
389,63	64000,00
390,10	64000,00
390,57	64000,00
391,03	64000,00
391,50	64000,00
391,97	64000,00
392,44	64000,00
392,90	64000,00
393,37	64000,00
393,84	64000,00
394,31	64000,00
394,77	64000,00
395,24	64000,00
395,71	64000,00
396,18	64000,00
396,64	64000,00
397,11	64000,00
397,58	64000,00
398,05	64000,00
398,51	64000,00
398,98	64000,00
399,45	64000,00
399,92	64000,00
400,38	64000,00
400,85	64000,00
401,32	64000,00
401,78	64000,00
402,25	64000,00
402,72	64000,00
403,18	64000,00
403,65	64000,00
404,12	64000,00
404,59	64000,00
405,05	64000,00
405,52	64000,00
405,99	64000,00
406,45	64000,00
406,92	64000,00
407,39	64000,00
407,85	64000,00
408,32	64000,00
408,79	64000,00
409,25	64000,00
409,72	64000,00
410,19	64000,00
410,65	64000,00
411,12	64000,00
411,59	64000,00
412,05	64000,00
412,52	64000,00
412,99	64000,00
413,45	64000,00
413,92	64000,00
414,39	64000,00
414,85	64000,00
415,32	64000,00
415,78	64000,00
416,25	64000,00
416,72	64000,00
417,18	64000,00
417,65	64000,00
418,12	64000,00
418,58	64000,00
419,05	64000,00
419,51	64000,00
419,98	64000,00
420,45	64000,00
420,91	64000,00
421,38	64000,00
421,84	64000,00
422,31	64000,00
422,78	64000,00
423,24	64000,00
423,71	64000,00
424,17	64000,00
424,64	64000,00
425,11	64000,00
425,57	64000,00
426,04	64000,00
426,50	64000,00
426,97	64000,00
427,43	64000,00
427,90	64000,00
428,37	64000,00
428,83	64000,00
429,30	64000,00
429,76	64000,00
430,23	64000,00
430,69	64000,00
431,16	64000,00
431,62	64000,00
432,09	64000,00
432,55	64000,00
433,02	64000,00
433,48	64000,00
433,95	64000,00
434,42	64000,00
434,88	64000,00
435,35	64000,00
435,81	64000,00
436,28	64000,00
436,74	64000,00
437,21	64000,00
437,67	64000,00
438,14	64000,00
438,60	64000,00
439,07	64000,00
439,53	64000,00
440,00	64000,00
440,46	64000,00
440,93	64000,00
441,39	64000,00
441,86	64000,00
442,32	64000,00
442,79	64000,00
443,25	64000,00
443,72	64000,00
444,18	64000,00
444,64	64000,00
445,11	64000,00
445,57	64000,00
446,04	64000,00
446,50	64000,00
446,97	64000,00
447,43	64000,00
447,90	64000,00
448,36	64000,00
448,83	64000,00
449,29	64000,00
449,75	64000,00
450,22	64000,00
450,68	64000,00
451,15	64000,00
451,61	64000,00
452,08	64000,00
452,54	64000,00
453,00	64000,00
453,47	64000,00
453,93	64000,00
454,40	64000,00
454,86	64000,00
455,32	64000,00
455,79	64000,00
456,25	64000,00
456,72	64000,00
457,18	64000,00
457,64	64000,00
458,11	64000,00
458,57	64000,00
459,04	64000,00
459,50	64000,00
459,96	64000,00
460,43	64000,00
460,89	64000,00
461,36	64000,00
461,82	64000,00
462,28	64000,00
462,75	64000,00
463,21	64000,00
463,67	64000,00
464,14	64000,00
464,60	64000,00
465,06	64000,00
465,53	64000,00
465,99	64000,00
466,45	64000,00
466,92	64000,00
467,38	64000,00
467,84	64000,00
468,31	64000,00
468,77	64000,00
469,23	64000,00
469,70	64000,00
470,16	64000,00
470,62	64000,00
471,09	64000,00
471,55	64000,00
472,01	64000,00
472,48	64000,00
472,94	64000,00
473,40	64000,00
473,87	64000,00
474,33	64000,00
474,79	64000,00
475,25	64000,00
475,72	64000,00
476,18	64000,00
476,64	64000,00
477,11	64000,00
477,57	64000,00
478,03	64000,00
478,49	64000,00
478,96	64000,00
479,42	64000,00
479,88	64000,00
480,35	64000,00
480,81	64000,00
481,27	64000,00
481,73	64000,00
482,20	64000,00
482,66	64000,00
483,12	64000,00
483,58	64000,00
484,05	64000,00
484,51	64000,00
484,97	64000,00
485,43	64000,00
485,89	64000,00
486,36	64000,00
486,82	64000,00
487,28	64000,00
487,74	64000,00
488,21	64000,00
488,67	64000,00
489,13	64000,00
489,59	64000,00
490,05	64000,00
490,52	64000,00
490,98	64000,00
491,44	64000,00
491,90	64000,00
492,36	64000,00
492,83	64000,00
493,29	64000,00
493,75	64000,00
494,21	64000,00
494,67	64000,00
495,14	64000,00
495,60	64000,00
496,06	64000,00
496,52	64000,00
496,98	64000,00
497,44	64000,00
497,91	64000,00
498,37	64000,00
498,83	64000,00
499,29	64000,00
499,75	64000,00
500,21	64000,00
500,67	64000,00
501,14	64000,00
501,60	64000,00
502,06	64000,00
502,52	64000,00
502,98	64000,00
503,44	64000,00
503,90	64000,00
504,37	64000,00
504,83	64000,00
505,29	64000,00
505,75	64000,00
506,21	64000,00
506,67	64000,00
507,13	64000,00
507,59	64000,00
508,05	64000,00
508,51	64000,00
508,98	64000,00
509,44	64000,00
509,90	64000,00
510,36	64000,00
510,82	64000,00
511,28	64000,00
511,74	64000,00
512,20	64000,00
512,66	64000,00
513,12	64000,00
513,58	64000,00
514,04	64000,00
514,51	64000,00
514,97	64000,00
515,43	64000,00
515,89	64000,00
516,35	64000,00
516,81	64000,00
517,27	64000,00
517,73	64000,00
518,19	64000,00
518,65	64000,00
519,11	64000,00
519,57	64000,00
520,03	64000,00
520,49	64000,00
520,95	64000,00
521,41	64000,00
521,87	64000,00
522,33	64000,00
522,79	64000,00
523,25	64000,00
523,71	64000,00
524,17	64000,00
524,63	64000,00
525,09	64000,00
525,55	64000,00
526,01	64000,00
526,47	64000,00
526,93	64000,00
527,39	64000,00
527,85	64000,00
528,31	64000,00
528,77	64000,00
529,23	64000,00
529,69	64000,00
530,15	64000,00
530,61	64000,00
531,07	64000,00
531,53	64000,00
531,99	64000,00
532,45	64000,00
532,91	64000,00
533,37	64000,00
533,83	64000,00
534,29	64000,00
534,75	64000,00
535,21	64000,00
535,67	64000,00
536,12	64000,00
536,58	64000,00
537,04	64000,00
537,50	64000,00
537,96	64000,00
538,42	64000,00
538,88	64000,00
539,34	64000,00
539,80	64000,00
540,26	64000,00
540,72	64000,00
541,18	64000,00
541,63	64000,00
542,09	64000,00
542,55	64000,00
543,01	64000,00
543,47	64000,00
543,93	64000,00
544,39	64000,00
544,85	64000,00
545,31	64000,00
545,76	64000,00
546,22	64000,00
546,68	64000,00
547,14	64000,00
547,60	64000,00
548,06	64000,00
548,52	64000,00
548,98	64000,00
549,43	64000,00
549,89	64000,00
550,35	64000,00
550,81	64000,00
551,27	64000,00
551,73	64000,00
552,19	64000,00
552,64	64000,00
553,10	64000,00
553,56	64000,00
554,02	64000,00
554,48	64000,00
554,93	64000,00
555,39	64000,00
555,85	64000,00
556,31	64000,00
556,77	64000,00
557,23	64000,00
557,68	64000,00
558,14	64000,00
558,60	64000,00
559,06	64000,00
559,52	64000,00
559,97	64000,00
560,43	64000,00
560,89	64000,00
561,35	64000,00
561,81	64000,00
562,26	64000,00
562,72	64000,00
563,18	64000,00
563,64	64000,00
564,09	64000,00
564,55	64000,00
565,01	64000,00
565,47	64000,00
565,92	64000,00
566,38	64000,00
566,84	64000,00
567,30	64000,00
567,75	64000,00
568,21	64000,00
568,67	64000,00
569,13	64000,00
569,58	64000,00
570,04	64000,00
570,50	64000,00
570,96	64000,00
571,41	64000,00
571,87	64000,00
572,33	64000,00
572,78	64000,00
573,24	64000,00
573,70	64000,00
574,16	64000,00
574,61	64000,00
575,07	64000,00
575,53	64000,00
575,98	64000,00
576,44	64000,00
576,90	64000,00
577,36	64000,00
577,81	64000,00
578,27	64000,00
578,73	64000,00
579,18	64000,00
579,64	64000,00
580,10	64000,00
580,55	64000,00
581,01	64000,00
581,47	64000,00
581,92	64000,00
582,38	64000,00
582,84	64000,00
583,29	64000,00
583,75	64000,00
584,21	64000,00
584,66	64000,00
585,12	64000,00
585,57	64000,00
586,03	64000,00
586,49	64000,00
586,94	64000,00
587,40	64000,00
587,86	64000,00
588,31	64000,00
588,77	64000,00
589,22	64000,00
589,68	64000,00
590,14	64000,00
590,59	64000,00
591,05	64000,00
591,51	64000,00
591,96	64000,00
592,42	64000,00
592,87	64000,00
593,33	64000,00
593,78	64000,00
594,24	64000,00
594,70	64000,00
595,15	64000,00
595,61	64000,00
596,06	64000,00
596,52	64000,00
596,98	64000,00
597,43	64000,00
597,89	64000,00
598,34	64000,00
598,80	64000,00
599,25	64000,00
599,71	64000,00
600,16	64000,00
600,62	64000,00
601,08	64000,00
601,53	64000,00
601,99	64000,00
602,44	64000,00
602,90	64000,00
603,35	64000,00
603,81	64000,00
604,26	64000,00
604,72	64000,00
605,17	64000,00
605,63	64000,00
606,08	64000,00
606,54	64000,00
606,99	64000,00
607,45	64000,00
607,90	64000,00
608,36	64000,00
608,81	64000,00
609,27	64000,00
609,72	64000,00
610,18	64000,00
610,63	64000,00
611,09	64000,00
611,54	64000,00
612,00	64000,00
612,45	64000,00
612,91	64000,00
613,36	64000,00
613,82	64000,00
614,27	64000,00
614,73	64000,00
615,18	64000,00
615,64	64000,00
616,09	64000,00
616,54	64000,00
617,00	64000,00
617,45	64000,00
617,91	64000,00
618,36	64000,00
618,82	64000,00
619,27	64000,00
619,72	64000,00
620,18	64000,00
620,63	64000,00
621,09	64000,00
621,54	64000,00
622,00	64000,00
622,45	64000,00
622,90	64000,00
623,36	64000,00
623,81	64000,00
624,27	64000,00
624,72	64000,00
625,17	64000,00
625,63	64000,00
626,08	64000,00
626,54	64000,00
626,99	64000,00
627,44	64000,00
627,90	64000,00
628,35	64000,00
628,81	64000,00
629,26	64000,00
629,71	64000,00
630,17	64000,00
630,62	64000,00
631,07	64000,00
631,53	64000,00
631,98	64000,00
632,43	64000,00
632,89	64000,00
633,34	64000,00
633,79	64000,00
634,25	64000,00
634,70	64000,00
635,15	64000,00
635,61	64000,00
636,06	64000,00
636,51	64000,00
636,97	64000,00
637,42	64000,00
637,87	64000,00
638,33	64000,00
638,78	64000,00
639,23	64000,00
639,69	64000,00
640,14	64000,00
640,59	64000,00
641,05	64000,00
641,50	64000,00
641,95	64000,00
642,40	64000,00
642,86	64000,00
643,31	64000,00
643,76	64000,00
644,22	64000,00
644,67	64000,00
645,12	64000,00
645,57	64000,00
646,03	64000,00
646,48	64000,00
646,93	64000,00
647,38	64000,00
647,84	64000,00
648,29	64000,00
648,74	64000,00
649,19	64000,00
649,65	64000,00
650,10	64000,00
650,55	64000,00
651,00	64000,00
651,46	64000,00
651,91	64000,00
652,36	64000,00
652,81	64000,00
653,27	64000,00
653,72	64000,00
654,17	64000,00
654,62	64000,00
655,07	64000,00
655,53	64000,00
655,98	64000,00
656,43	64000,00
656,88	64000,00
657,33	64000,00
657,79	64000,00
658,24	64000,00
658,69	64000,00
659,14	64000,00
659,59	64000,00
660,05	64000,00
660,50	64000,00
660,95	64000,00
661,40	64000,00
661,85	64000,00
662,30	64000,00
662,76	64000,00
663,21	64000,00
663,66	64000,00
664,11	64000,00
664,56	64000,00
665,01	64000,00
665,47	64000,00
665,92	64000,00
666,37	64000,00
666,82	64000,00
667,27	64000,00
667,72	64000,00
668,17	64000,00
668,62	64000,00
669,08	64000,00
669,53	64000,00
669,98	64000,00
670,43	64000,00
670,88	64000,00
671,33	64000,00
671,78	64000,00
672,23	64000,00
672,69	64000,00
673,14	64000,00
673,59	64000,00
674,04	64000,00
674,49	64000,00
674,94	64000,00
675,39	64000,00
675,84	64000,00
676,29	64000,00
676,74	64000,00
677,19	64000,00
677,64	64000,00
678,10	64000,00
678,55	64000,00
679,00	64000,00
679,45	64000,00
679,90	64000,00
680,35	64000,00
680,80	64000,00
681,25	64000,00
681,70	64000,00
682,15	64000,00
682,60	64000,00
683,05	64000,00
683,50	64000,00
683,95	64000,00
684,40	64000,00
684,85	64000,00
685,30	64000,00
685,75	64000,00
686,20	64000,00
686,65	64000,00
687,10	64000,00
687,55	64000,00
688,00	64000,00
688,45	64000,00
688,90	64000,00
689,35	64000,00
689,80	64000,00
690,25	64000,00
690,70	64000,00
691,15	64000,00
691,60	64000,00
692,05	64000,00
692,50	64000,00
692,95	64000,00
693,40	64000,00
693,85	64000,00
694,30	64000,00
694,75	64000,00
695,20	64000,00
695,65	64000,00
696,10	64000,00
696,55	64000,00
697,00	64000,00
697,45	64000,00
697,90	64000,00
698,35	64000,00
698,80	64000,00
699,24	64000,00
699,69	64000,00
700,14	64000,00
700,59	64000,00
701,04	64000,00
701,49	64000,00
701,94	64000,00
702,39	64000,00
702,84	64000,00
703,29	64000,00
703,74	64000,00
704,19	64000,00
704,63	64000,00
705,08	64000,00
705,53	64000,00
705,98	64000,00
706,43	64000,00
706,88	64000,00
707,33	64000,00
707,78	64000,00
708,22	64000,00
708,67	64000,00
709,12	64000,00
709,57	64000,00
710,02	64000,00
710,47	64000,00
710,92	64000,00
711,37	64000,00
711,81	64000,00
712,26	64000,00
712,71	64000,00
713,16	64000,00
713,61	64000,00
714,06	64000,00
714,50	64000,00
714,95	64000,00
715,40	64000,00
715,85	64000,00
716,30	64000,00
716,75	64000,00
717,19	64000,00
717,64	64000,00
718,09	64000,00
718,54	64000,00
718,99	64000,00
719,43	64000,00
719,88	64000,00
720,33	64000,00
720,78	64000,00
721,23	64000,00
721,67	64000,00
722,12	64000,00
722,57	64000,00
723,02	64000,00
723,47	64000,00
723,91	64000,00
724,36	64000,00
724,81	64000,00
725,26	64000,00
725,70	64000,00
726,15	64000,00
726,60	64000,00
727,05	64000,00
727,49	64000,00
727,94	64000,00
728,39	64000,00
728,84	64000,00
729,28	64000,00
729,73	64000,00
730,18	64000,00
730,63	64000,00
731,07	64000,00
731,52	64000,00
731,97	64000,00
732,41	64000,00
732,86	64000,00
733,31	64000,00
733,76	64000,00
734,20	64000,00
734,65	64000,00
735,10	64000,00
735,54	64000,00
735,99	64000,00
736,44	64000,00
736,89	64000,00
737,33	64000,00
737,78	64000,00
738,23	64000,00
738,67	64000,00
739,12	64000,00
739,57	64000,00
740,01	64000,00
740,46	64000,00
740,91	64000,00
741,35	64000,00
741,80	64000,00
742,25	64000,00
742,69	64000,00
743,14	64000,00
743,59	64000,00
744,03	64000,00
744,48	64000,00
744,92	64000,00
745,37	64000,00
745,82	64000,00
746,26	64000,00
746,71	64000,00
747,16	64000,00
747,60	64000,00
748,05	64000,00
748,49	64000,00
748,94	64000,00
749,39	64000,00
749,83	64000,00
750,28	64000,00
750,73	64000,00
751,17	64000,00
751,62	64000,00
752,06	64000,00
752,51	64000,00
752,95	64000,00
753,40	64000,00
753,85	64000,00
754,29	64000,00
754,74	64000,00
755,18	64000,00
755,63	64000,00
756,07	64000,00
756,52	64000,00
756,97	64000,00
757,41	64000,00
757,86	64000,00
758,30	64000,00
758,75	64000,00
759,19	64000,00
759,64	64000,00
760,08	64000,00
760,53	64000,00
760,98	64000,00
761,42	64000,00
761,87	64000,00
762,31	64000,00
762,76	64000,00
763,20	64000,00
763,65	64000,00
764,09	64000,00
764,54	64000,00
764,98	64000,00
765,43	64000,00
765,87	64000,00
766,32	64000,00
766,76	64000,00
767,21	64000,00
767,65	64000,00
768,10	64000,00
768,54	64000,00
768,99	64000,00
769,43	64000,00
769,88	64000,00
770,32	64000,00
770,77	64000,00
771,21	64000,00
771,65	64000,00
772,10	64000,00
772,54	64000,00
772,99	64000,00
773,43	64000,00
773,88	64000,00
774,32	64000,00
774,77	64000,00
775,21	64000,00
775,65	64000,00
776,10	64000,00
776,54	64000,00
776,99	64000,00
777,43	64000,00
777,88	64000,00
778,32	64000,00
778,76	64000,00
779,21	64000,00
779,65	64000,00
780,10	64000,00
780,54	64000,00
780,99	64000,00
781,43	64000,00
781,87	64000,00
782,32	64000,00
782,76	64000,00
783,20	64000,00
783,65	64000,00
784,09	64000,00
784,54	64000,00
784,98	64000,00
785,42	64000,00
785,87	64000,00
786,31	64000,00
786,75	64000,00
787,20	64000,00
787,64	64000,00
788,09	64000,00
788,53	64000,00
788,97	64000,00
789,42	64000,00
789,86	64000,00
790,30	64000,00
790,75	64000,00
791,19	64000,00
791,63	64000,00
792,08	64000,00
792,52	64000,00
792,96	64000,00
793,41	64000,00
793,85	64000,00
794,29	64000,00
794,74	64000,00
795,18	64000,00
795,62	64000,00
796,06	64000,00
796,51	64000,00
796,95	64000,00
797,39	64000,00
797,84	64000,00
798,28	64000,00
798,72	64000,00
799,16	64000,00
799,61	64000,00
800,05	64000,00
800,49	64000,00
800,94	64000,00
801,38	64000,00
801,82	64000,00
802,26	64000,00
802,71	64000,00
803,15	64000,00
803,59	64000,00
804,03	64000,00
804,48	64000,00
804,92	64000,00
805,36	64000,00
805,80	64000,00
806,25	64000,00
806,69	64000,00
807,13	64000,00
807,57	64000,00
808,01	64000,00
808,46	64000,00
808,90	64000,00
809,34	64000,00
809,78	64000,00
810,23	64000,00
810,67	64000,00
811,11	64000,00
811,55	64000,00
811,99	64000,00
812,44	64000,00
812,88	64000,00
813,32	64000,00
813,76	64000,00
814,20	64000,00
814,64	64000,00
815,09	64000,00
815,53	64000,00
815,97	64000,00
816,41	64000,00
816,85	64000,00
817,29	64000,00
817,74	64000,00
818,18	64000,00
818,62	64000,00
819,06	64000,00
819,50	64000,00
819,94	64000,00
820,39	64000,00
820,83	64000,00
821,27	64000,00
821,71	64000,00
822,15	64000,00
822,59	64000,00
823,03	64000,00
823,47	64000,00
823,92	64000,00
824,36	64000,00
824,80	64000,00
825,24	64000,00
825,68	64000,00
826,12	64000,00
826,56	64000,00
827,00	64000,00
827,44	64000,00
827,88	64000,00
828,33	64000,00
828,77	64000,00
829,21	64000,00
829,65	64000,00
830,09	64000,00
830,53	64000,00
830,97	64000,00
831,41	64000,00
831,85	64000,00
832,29	64000,00
832,73	64000,00
833,17	64000,00
833,61	64000,00
834,05	64000,00
834,49	64000,00
834,93	64000,00
835,37	64000,00
835,82	64000,00
836,26	64000,00
836,70	64000,00
837,14	64000,00
837,58	64000,00
838,02	64000,00
838,46	64000,00
838,90	64000,00
839,34	64000,00
839,78	64000,00
840,22	64000,00
840,66	64000,00
841,10	64000,00
841,54	64000,00
841,98	64000,00
842,42	64000,00
842,86	64000,00
843,30	64000,00
843,74	64000,00
844,18	64000,00
844,62	64000,00
845,06	64000,00
845,50	64000,00
845,94	64000,00
846,37	64000,00
846,81	64000,00
847,25	64000,00
847,69	64000,00
848,13	64000,00
848,57	64000,00
849,01	64000,00
849,45	64000,00
849,89	64000,00
850,33	64000,00
850,77	64000,00
851,21	64000,00
851,65	64000,00
852,09	64000,00
852,53	64000,00
852,97	64000,00
853,40	64000,00
853,84	64000,00
854,28	64000,00
854,72	64000,00
855,16	64000,00
855,60	64000,00
856,04	64000,00
856,48	64000,00
856,92	64000,00
857,36	64000,00
857,79	64000,00
858,23	64000,00
858,67	64000,00
859,11	64000,00
859,55	64000,00
859,99	64000,00
860,43	64000,00
860,87	64000,00
861,30	64000,00
861,74	64000,00
862,18	64000,00
862,62	64000,00
863,06	64000,00
863,50	64000,00
863,94	64000,00
864,37	64000,00
864,81	64000,00
865,25	64000,00
865,69	64000,00
866,13	64000,00
866,57	64000,00
867,00	64000,00
867,44	64000,00
867,88	64000,00
868,32	64000,00
868,76	64000,00
869,19	64000,00
869,63	64000,00
870,07	64000,00
870,51	64000,00
870,95	64000,00
871,38	64000,00
871,82	64000,00
872,26	64000,00
872,70	64000,00
873,14	64000,00
873,57	64000,00
874,01	64000,00
874,45	64000,00
874,89	64000,00
875,32	64000,00
875,76	64000,00
876,20	64000,00
876,64	64000,00
877,07	64000,00
877,51	64000,00
877,95	64000,00
878,39	64000,00
878,82	64000,00
879,26	64000,00
879,70	64000,00
880,14	64000,00
880,57	64000,00
881,01	64000,00
881,45	64000,00
881,89	64000,00
882,32	64000,00
882,76	64000,00
883,20	64000,00
883,63	64000,00
884,07	64000,00
884,51	64000,00
884,94	64000,00
885,38	64000,00
885,82	64000,00
886,26	64000,00
886,69	64000,00
887,13	64000,00
887,57	64000,00
888,00	64000,00
888,44	64000,00
888,88	64000,00
889,31	64000,00
889,75	64000,00
890,19	64000,00
890,62	64000,00
891,06	64000,00
891,50	64000,00
891,93	64000,00
892,37	64000,00
892,81	64000,00
893,24	64000,00
893,68	64000,00
894,11	64000,00
894,55	64000,00
894,99	64000,00
895,42	64000,00
895,86	64000,00
896,30	64000,00
896,73	64000,00
897,17	64000,00
897,60	64000,00
898,04	64000,00
898,48	64000,00
898,91	64000,00
899,35	64000,00
899,78	64000,00
900,22	64000,00
900,66	64000,00
901,09	64000,00
901,53	64000,00
901,96	64000,00
902,40	64000,00
902,84	64000,00
903,27	64000,00
903,71	64000,00
904,14	64000,00
904,58	64000,00
905,01	64000,00
905,45	64000,00
905,88	64000,00
906,32	64000,00
906,76	64000,00
907,19	64000,00
907,63	64000,00
908,06	64000,00
908,50	64000,00
908,93	64000,00
909,37	64000,00
909,80	64000,00
910,24	64000,00
910,67	64000,00
911,11	64000,00
911,54	64000,00
911,98	64000,00
912,41	64000,00
912,85	64000,00
913,28	64000,00
913,72	64000,00
914,15	64000,00
914,59	64000,00
915,02	64000,00
915,46	64000,00
915,89	64000,00
916,33	64000,00
916,76	64000,00
917,20	64000,00
917,63	64000,00
918,07	64000,00
918,50	64000,00
918,94	64000,00
919,37	64000,00
919,81	64000,00
920,24	64000,00
920,67	64000,00
921,11	64000,00
921,54	64000,00
921,98	64000,00
922,41	64000,00
922,85	64000,00
923,28	64000,00
923,72	64000,00
924,15	64000,00
924,58	64000,00
925,02	64000,00
925,45	64000,00
925,89	64000,00
926,32	64000,00
926,75	64000,00
927,19	64000,00
927,62	64000,00
928,06	64000,00
928,49	64000,00
928,92	64000,00
929,36	64000,00
929,79	64000,00
930,23	64000,00
930,66	64000,00
931,09	64000,00
931,53	64000,00
931,96	64000,00
932,39	64000,00
932,83	64000,00
933,26	64000,00
933,70	64000,00
934,13	64000,00
934,56	64000,00
935,00	64000,00
935,43	64000,00
935,86	64000,00
936,30	64000,00
936,73	64000,00
937,16	64000,00
937,60	64000,00
938,03	64000,00
938,46	64000,00
938,90	64000,00
939,33	64000,00
939,76	64000,00
940,19	64000,00
940,63	64000,00
941,06	64000,00
941,49	64000,00
941,93	64000,00
942,36	64000,00
942,79	64000,00
943,23	64000,00
943,66	64000,00
944,09	64000,00
944,52	64000,00
944,96	64000,00
945,39	64000,00
945,82	64000,00
946,26	64000,00
946,69	64000,00
947,12	64000,00
947,55	64000,00
947,99	64000,00
948,42	64000,00
948,85	64000,00
949,28	64000,00
949,72	64000,00
950,15	64000,00
950,58	64000,00
951,01	64000,00
951,45	64000,00
951,88	64000,00
952,31	64000,00
952,74	64000,00
953,17	64000,00
953,61	64000,00
954,04	64000,00
954,47	64000,00
954,90	64000,00
955,33	64000,00
955,77	64000,00
956,20	64000,00
956,63	64000,00
957,06	64000,00
957,49	64000,00
957,93	64000,00
958,36	64000,00
958,79	64000,00
959,22	64000,00
959,65	64000,00
960,08	64000,00
960,52	64000,00
960,95	64000,00
961,38	64000,00
961,81	64000,00
962,24	64000,00
962,67	64000,00
963,11	64000,00
963,54	64000,00
963,97	64000,00
964,40	64000,00
964,83	64000,00
965,26	64000,00
965,69	64000,00
966,13	64000,00
966,56	64000,00
966,99	64000,00
967,42	64000,00
967,85	64000,00
968,28	64000,00
968,71	64000,00
969,14	64000,00
969,57	64000,00
970,01	64000,00
970,44	64000,00
970,87	64000,00
971,30	64000,00
971,73	64000,00
972,16	64000,00
972,59	64000,00
973,02	64000,00
973,45	64000,00
973,88	64000,00
974,31	64000,00
974,74	64000,00
975,17	64000,00
975,61	64000,00
976,04	64000,00
976,47	64000,00
976,90	64000,00
977,33	64000,00
977,76	64000,00
978,19	64000,00
978,62	64000,00
979,05	64000,00
979,48	64000,00
979,91	64000,00
980,34	64000,00
980,77	64000,00
981,20	64000,00
981,63	64000,00
982,06	64000,00
982,49	64000,00
982,92	64000,00
983,35	64000,00
983,78	64000,00
984,21	64000,00
984,64	64000,00
985,07	64000,00
985,50	64000,00
985,93	64000,00
986,36	64000,00
986,79	64000,00
987,22	64000,00
987,65	64000,00
988,08	64000,00
988,51	64000,00
988,94	64000,00
989,37	64000,00
989,80	64000,00
990,23	64000,00
990,66	64000,00
991,09	64000,00
991,51	64000,00
991,94	64000,00
992,37	64000,00
992,80	64000,00
993,23	64000,00
993,66	64000,00
994,09	64000,00
994,52	64000,00
994,95	64000,00
995,38	64000,00
995,81	64000,00
996,24	64000,00
996,67	64000,00
997,09	64000,00
997,52	64000,00
997,95	64000,00
998,38	64000,00
998,81	64000,00
999,24	64000,00
999,67	64000,00
1000,10	64000,00
1000,53	64000,00
1000,95	64000,00
1001,38	64000,00
1001,81	64000,00
1002,24	64000,00
1002,67	64000,00
1003,10	64000,00
1003,53	64000,00
1003,95	64000,00
1004,38	64000,00
1004,81	64000,00
1005,24	64000,00
1005,67	64000,00
1006,10	64000,00
1006,52	64000,00
1006,95	64000,00
1007,38	64000,00
1007,81	64000,00
1008,24	64000,00
1008,67	64000,00
1009,09	64000,00
1009,52	64000,00
1009,95	64000,00
1010,38	64000,00
1010,81	64000,00
1011,23	64000,00
1011,66	64000,00
1012,09	64000,00
1012,52	64000,00
1012,95	64000,00
1013,37	64000,00
1013,80	64000,00
1014,23	64000,00
1014,66	64000,00
1015,08	64000,00
1015,51	64000,00
1015,94	64000,00
1016,37	64000,00
1016,80	64000,00
1017,22	64000,00
1017,65	64000,00
1018,08	64000,00
1018,51	64000,00
1018,93	64000,00
1019,36	64000,00
1019,79	64000,00
1020,21	64000,00
1020,64	64000,00
1021,07	64000,00
1021,50	64000,00
1021,92	64000,00
1022,35	64000,00
1022,78	64000,00
1023,21	64000,00
1023,63	64000,00
1024,06	64000,00
1024,49	64000,00
1024,91	64000,00
1025,34	64000,00
1025,77	64000,00
1026,19	64000,00
1026,62	64000,00
1027,05	64000,00
1027,47	64000,00
1027,90	64000,00
1028,33	64000,00
1028,75	64000,00
1029,18	64000,00
1029,61	64000,00
1030,03	64000,00
1030,46	64000,00
1030,89	64000,00
1031,31	64000,00
1031,74	64000,00
1032,17	64000,00
1032,59	64000,00
1033,02	64000,00
1033,45	64000,00
1033,87	64000,00
1034,30	64000,00
1034,73	64000,00
1035,15	64000,00
1035,58	64000,00
1036,00	64000,00
1036,43	64000,00
1036,86	64000,00
1037,28	64000,00
1037,71	64000,00
1038,13	64000,00
1038,56	64000,00
1038,99	64000,00
1039,41	64000,00
1039,84	64000,00
1040,26	64000,00
1040,69	64000,00
1041,11	64000,00
1041,54	64000,00
1041,97	64000,00
1042,39	64000,00
1042,82	64000,00
1043,24	64000,00
1043,67	64000,00
1044,09	64000,00
1044,52	64000,00
1044,95	64000,00
1045,37	64000,00
1045,80	64000,00
1046,22	64000,00
1046,65	64000,00
1047,07	64000,00
1047,50	64000,00
1047,92	64000,00
1048,35	64000,00
1048,77	64000,00
1049,20	64000,00
1049,62	64000,00
1050,05	64000,00
1050,47	64000,00
1050,90	64000,00
1051,32	64000,00
1051,75	64000,00
1052,17	64000,00
1052,60	64000,00
1053,02	64000,00
1053,45	64000,00
1053,87	64000,00
1054,30	64000,00
1054,72	64000,00
1055,15	64000,00
1055,57	64000,00
1056,00	64000,00
1056,42	64000,00
1056,85	64000,00
1057,27	64000,00
1057,70	64000,00
1058,12	64000,00
1058,54	64000,00
1058,97	64000,00
1059,39	64000,00
1059,82	64000,00
1060,24	64000,00
1060,67	64000,00
1061,09	64000,00
1061,51	64000,00
1061,94	64000,00
1062,36	64000,00
1062,79	64000,00
1063,21	64000,00
1063,64	64000,00
1064,06	64000,00
1064,48	64000,00
1064,91	64000,00
1065,33	64000,00
1065,76	64000,00
1066,18	64000,00
1066,60	64000,00
1067,03	64000,00
1067,45	64000,00
1067,87	64000,00
1068,30	64000,00
1068,72	64000,00
1069,15	64000,00
1069,57	64000,00
1069,99	64000,00
1070,42	64000,00
1070,84	64000,00
1071,26	64000,00
1071,69	64000,00
1072,11	64000,00
1072,53	64000,00
1072,96	64000,00
1073,38	64000,00
1073,80	64000,00
1074,23	64000,00
1074,65	64000,00
1075,07	64000,00
1075,50	64000,00
1075,92	64000,00
1076,34	64000,00
1076,77	64000,00
1077,19	64000,00
1077,61	64000,00
1078,04	64000,00
1078,46	64000,00
1078,88	64000,00
1079,30	64000,00
1079,73	64000,00
1080,15	64000,00
1080,57	64000,00
1081,00	64000,00
1081,42	64000,00
1081,84	64000,00
1082,26	64000,00
1082,69	64000,00
1083,11	64000,00
1083,53	64000,00
1083,95	64000,00
1084,38	64000,00
1084,80	64000,00
1085,22	64000,00
1085,64	64000,00
1086,07	64000,00
1086,49	64000,00
1086,91	64000,00
1087,33	64000,00
1087,76	64000,00
1088,18	64000,00
1088,60	64000,00
1089,02	64000,00
1089,45	64000,00
1089,87	64000,00
1090,29	64000,00
1090,71	64000,00
1091,13	64000,00
1091,56	64000,00
1091,98	64000,00
1092,40	64000,00
1092,82	64000,00
1093,24	64000,00
1093,66	64000,00
1094,09	64000,00
1094,51	64000,00
1094,93	64000,00
1095,35	64000,00
1095,77	63977,00
1096,19	64000,00
1096,62	64000,00
1097,04	61805,00
1097,46	61579,00
1097,88	60915,00
1098,30	60902,00
1098,72	60362,00
1099,15	59388,00
1099,57	58272,00
1099,99	57636,00
1100,41	56330,00
1100,83	55854,00
1101,25	54360,00
1101,67	53274,00
1102,09	51087,00
1102,52	50842,00
1102,94	50197,00
1103,36	49524,00
1103,78	48871,00
1104,20	47487,00
1104,62	49253,00
1105,04	45458,00
1105,46	46674,00
1105,88	45543,00
1106,30	45373,00
1106,73	45762,00
1107,15	43068,00
1107,57	42448,00
1107,99	43837,00
1108,41	41150,00
1108,83	41916,00
1109,25	40964,00
1109,67	40143,00
1110,09	37285,00
1110,51	37407,00
1110,93	36093,00
1111,35	36586,00
1111,77	35256,00
1112,19	34760,00
1112,61	33078,00
1113,03	33270,00
1113,45	32627,00
1113,87	31895,00
1114,29	31453,00
1114,71	30777,00
1115,13	29171,00
1115,55	28921,00
1115,98	27635,00
1116,40	27731,00
1116,82	26455,00
1117,24	25194,00
1117,66	23705,00
1118,08	1722,00
1118,50	2249,00
1118,91	2191,00
1119,33	2191,00
>>>>>End Processed Spectral Data<<<<<
